wavenumber,intensity
112.8,41.0000
119.6,41.0000
126.4,30.0000
133.2,37.0000
140.0,41.0000
146.8,45.0000
153.6,110.0000
160.4,311.0000
167.1,737.0000
173.8,1174.0000
180.5,1436.0000
187.3,1528.0000
194.0,1483.0000
200.7,1372.0000
207.4,1265.0000
214.2,1128.0000
220.8,1002.0000
227.5,929.0000
234.1,813.0000
240.8,758.0000
247.4,671.0000
254.1,660.0000
260.7,601.0000
267.3,563.0000
273.9,542.0000
280.5,547.0000
287.0,532.0000
293.7,536.0000
300.2,540.0000
306.8,561.0000
313.3,608.0000
319.9,657.0000
326.4,733.0000
332.9,838.0000
339.4,1020.0000
345.9,1293.0000
352.4,1833.0000
358.9,2895.0000
365.3,5386.0000
371.8,9572.0000
378.3,11423.0000
384.7,8118.0000
391.1,4804.0000
397.6,2765.0000
404.0,1773.0000
410.4,1300.0000
416.8,1005.0000
423.2,843.0000
429.6,673.0000
435.9,613.0000
442.3,499.0000
448.6,444.0000
455.0,399.0000
461.3,351.0000
467.6,334.0000
473.9,273.0000
480.2,273.0000
486.6,249.0000
492.8,196.0000
499.1,178.0000
505.3,161.0000
511.6,154.0000
517.8,162.0000
524.1,128.0000
530.3,136.0000
536.5,147.0000
542.7,159.0000
548.9,123.0000
555.1,118.0000
561.3,112.0000
567.5,86.0000
573.7,77.0000
579.8,68.0000
586.0,81.0000
592.1,65.0000
598.2,64.0000
604.3,60.0000
610.5,60.0000
616.6,74.0000
622.6,27.0000
628.7,62.0000
634.8,78.0000
640.9,83.0000
646.9,66.0000
653.0,76.0000
659.0,53.0000
665.0,80.0000
671.0,50.0000
677.1,60.0000
683.1,63.0000
689.1,89.0000
695.0,59.0000
701.0,94.0000
707.0,78.0000
712.9,100.0000
718.8,117.0000
724.8,151.0000
730.7,201.0000
736.7,332.0000
742.6,543.0000
748.5,754.0000
754.3,777.0000
760.2,592.0000
766.1,402.0000
772.0,280.0000
777.8,171.0000
783.7,137.0000
789.5,116.0000
795.3,104.0000
801.2,99.0000
807.0,78.0000
812.8,74.0000
818.6,87.0000
824.4,80.0000
830.1,80.0000
835.9,78.0000
841.7,80.0000
847.4,91.0000
853.2,109.0000
858.9,97.0000
864.6,83.0000
870.3,117.0000
876.0,118.0000
881.7,146.0000
887.4,182.0000
893.1,227.0000
898.8,377.0000
904.4,658.0000
910.0,1449.0000
915.7,7662.0000
921.3,18094.0000
926.9,12243.0000
932.6,4699.0000
938.2,1418.0000
943.8,587.0000
949.3,385.0000
955.0,274.0000
960.5,242.0000
966.1,218.0000
971.6,202.0000
977.2,214.0000
982.8,179.0000
988.3,181.0000
993.8,159.0000
999.3,176.0000
1004.8,185.0000
1010.3,210.0000
1015.8,210.0000
1021.3,242.0000
1026.7,284.0000
1032.2,331.0000
1037.6,395.0000
1043.1,419.0000
1048.5,401.0000
1053.9,341.0000
1059.3,284.0000
1064.7,254.0000
1070.2,239.0000
1075.6,194.0000
1080.9,165.0000
1086.3,186.0000
1091.7,150.0000
1097.1,153.0000
1102.4,111.0000
1107.7,129.0000
1113.0,134.0000
1118.4,122.0000
1123.7,142.0000
1129.0,107.0000
1134.3,114.0000
1139.6,101.0000
1144.8,77.0000
1150.1,97.0000
1155.4,82.0000
1160.7,91.0000
1165.9,63.0000
1171.1,87.0000
1176.4,57.0000
1181.6,71.0000
1186.8,48.0000
1192.0,86.0000
1197.2,65.0000
1202.4,69.0000
1207.5,53.0000
1212.7,82.0000
1217.9,76.0000
1223.0,82.0000
1228.2,112.0000
1233.3,96.0000
1238.4,103.0000
1243.6,132.0000
1248.7,102.0000
1253.8,138.0000
1258.9,131.0000
1264.0,175.0000
1269.0,186.0000
1274.1,192.0000
1279.2,230.0000
1284.2,235.0000
1289.2,259.0000
1294.3,302.0000
1299.3,326.0000
1304.3,385.0000
1309.4,418.0000
1314.4,462.0000
1319.4,498.0000
1324.3,621.0000
1329.3,662.0000
1334.3,743.0000
1339.2,850.0000
1344.2,972.0000
1349.2,1113.0000
1354.1,1331.0000
1359.0,1703.0000
1364.0,2424.0000
1368.9,4041.0000
1373.8,6733.0000
1378.7,7247.0000
1383.6,5214.0000
1388.4,3646.0000
1393.3,3031.0000
1398.2,2771.0000
1403.0,2799.0000
1407.9,2847.0000
1412.7,2930.0000
1417.5,2922.0000
1422.4,2884.0000
1427.2,2882.0000
1432.0,2932.0000
1436.8,3058.0000
1441.6,3261.0000
1446.4,3335.0000
1451.1,3345.0000
1455.9,3120.0000
1460.7,2822.0000
1465.5,2437.0000
1470.2,2156.0000
1474.9,1886.0000
1479.6,1701.0000
1484.3,1559.0000
1489.0,1432.0000
1493.8,1342.0000
1498.5,1261.0000
1503.2,1211.0000
1507.8,1154.0000
1512.5,1102.0000
1517.2,1089.0000
1521.8,1020.0000
1526.5,973.0000
1531.1,936.0000
1535.7,902.0000
1540.4,846.0000
1545.0,793.0000
1549.6,738.0000
1554.2,728.0000
1558.8,543.0000
1563.4,595.0000
1567.9,560.0000
1572.5,511.0000
1577.1,470.0000
1581.7,433.0000
1586.2,395.0000
1590.8,372.0000
1595.3,347.0000
1599.8,309.0000
1604.3,282.0000
1608.8,264.0000
1613.3,232.0000
1617.8,204.0000
1622.3,186.0000
1626.7,180.0000
1631.2,154.0000
1635.7,159.0000
1640.1,154.0000
1644.6,104.0000
1649.0,119.0000
1653.5,105.0000
1657.8,90.0000
1662.3,115.0000
1666.7,96.0000
1671.1,95.0000
1675.5,79.0000
1679.8,102.0000
1684.2,92.0000
1688.6,87.0000
1693.0,52.0000
1697.3,88.0000
1701.6,63.0000
1706.0,73.0000
1710.3,81.0000
1714.6,49.0000
1718.9,40.0000
1723.3,56.0000
1727.5,55.0000
1731.8,77.0000
1736.1,63.0000
1740.4,57.0000
1744.7,51.0000
1749.0,66.0000
1753.2,72.0000
1757.4,66.0000
1761.7,83.0000
1765.9,62.0000
1770.1,71.0000
1774.3,87.0000
1778.6,96.0000
1782.8,75.0000
1786.9,80.0000
1791.2,77.0000
1795.3,97.0000
1799.5,98.0000
1803.6,99.0000
1807.8,100.0000
1811.9,92.0000
1816.1,93.0000
1820.2,113.0000
1824.3,181.0000
1828.5,167.0000
1832.6,146.0000
1836.7,141.0000
1840.8,112.0000
1844.9,103.0000
1848.9,82.0000
1853.0,79.0000
1857.1,67.0000
1861.2,46.0000
1865.2,71.0000
1869.2,66.0000
1873.3,71.0000
1877.3,43.0000
1881.3,64.0000
1885.3,58.0000
1889.4,48.0000
1893.4,63.0000
1897.4,52.0000
1901.3,35.0000
1905.3,38.0000
1909.3,47.0000
1913.2,67.0000
1917.2,43.0000
1921.1,45.0000
1925.1,41.0000
1929.0,55.0000
1933.0,36.0000
1936.9,44.0000
1940.8,25.0000
1944.7,55.0000
1948.6,60.0000
1952.5,48.0000
1956.4,25.0000
1960.2,34.0000
1964.1,6.0000
1968.0,44.0000
1971.8,38.0000
1975.7,43.0000
1979.5,48.0000
1983.3,70.0000
1987.2,35.0000
1991.0,28.0000
1994.8,30.0000
1998.6,21.0000
2002.4,25.0000
2006.2,0.0000
2010.0,37.0000
2013.8,22.0000
2017.6,7.0000
2021.3,22.0000
2025.1,51.0000
2028.8,46.0000
2032.6,45.0000
2036.3,41.0000
2040.0,44.0000
2043.7,14.0000
2047.4,40.0000
2051.1,11.0000
2054.8,45.0000
2058.5,34.0000
2062.2,35.0000
2065.9,62.0000
2069.5,38.0000
2073.2,38.0000
2076.9,42.0000
2080.5,47.0000
2084.2,60.0000
2087.8,40.0000
2091.4,31.0000
2095.1,52.0000
2098.6,34.0000
2102.3,57.0000
2105.9,44.0000
2109.4,62.0000
2113.1,53.0000
2116.6,19.0000
2120.2,53.0000
2123.8,54.0000
2127.3,56.0000
2130.8,31.0000
2134.4,56.0000
2138.0,46.0000
2141.5,67.0000
2145.0,64.0000
2148.5,85.0000
2152.0,54.0000
2155.5,51.0000
2159.0,71.0000
2162.5,89.0000
2166.0,59.0000
2169.5,89.0000
2173.0,79.0000
2176.4,98.0000
2179.8,93.0000
2183.3,118.0000
2186.7,110.0000
2190.1,134.0000
2193.6,172.0000
2197.0,253.0000
2200.4,339.0000
2203.8,485.0000
2207.3,472.0000
2210.6,292.0000
2214.0,260.0000
2217.4,313.0000
2220.8,367.0000
2224.1,433.0000
2227.5,591.0000
2230.9,702.0000
2234.2,914.0000
2237.5,1444.0000
2240.9,2630.0000
2244.2,5612.0000
2247.5,12372.0000
2250.8,26072.0000
2254.1,33863.0000
2257.4,19293.0000
2260.7,6190.0000
2264.0,2725.0000
2267.3,1739.0000
2270.6,1338.0000
2273.8,1166.0000
2277.1,1061.0000
2280.3,1007.0000
2283.5,1232.0000
2286.8,1540.0000
2290.0,2221.0000
2293.2,2810.0000
2296.5,2557.0000
2299.7,1664.0000
2302.9,982.0000
2306.0,652.0000
2309.3,463.0000
2312.4,372.0000
2315.6,351.0000
2318.8,280.0000
2322.0,264.0000
2325.1,226.0000
2328.3,227.0000
2331.4,189.0000
2334.6,218.0000
2337.7,200.0000
2340.8,170.0000
2343.9,168.0000
2347.0,153.0000
2350.1,157.0000
2353.2,137.0000
2356.3,114.0000
2359.4,127.0000
2362.5,107.0000
2365.6,113.0000
2368.6,113.0000
2371.7,105.0000
2374.7,105.0000
2377.7,86.0000
2380.8,113.0000
2383.9,89.0000
2386.9,106.0000
2389.9,108.0000
2392.9,118.0000
2395.9,107.0000
2398.9,125.0000
2401.9,135.0000
2404.9,98.0000
2407.9,119.0000
2410.8,116.0000
2413.8,136.0000
2416.8,125.0000
2419.7,130.0000
2422.7,126.0000
2425.6,94.0000
2428.5,127.0000
2431.5,100.0000
2434.4,119.0000
2437.3,98.0000
2440.2,99.0000
2443.1,103.0000
2446.0,99.0000
2448.9,102.0000
2451.8,76.0000
2454.7,97.0000
2457.5,104.0000
2460.4,89.0000
2463.3,105.0000
2466.1,93.0000
2469.0,79.0000
2471.8,69.0000
2474.6,100.0000
2477.5,69.0000
2480.3,80.0000
2483.1,103.0000
2485.9,104.0000
2488.7,88.0000
2491.5,116.0000
2494.3,96.0000
